File contains ACRIMSAT/ACRIM3 results
Corrected for degradation
Reconciled to 1 A.U.
Reported on "native scale" of ACRIM3 sensor C

Colums 1:	Year
Column 2:	TSI		(W/m2)
Column 3:	TSI Uncertainty (W/m2)
Column 4:	Epoch 1980 Day

2000.26120030 1367.492    0.008 7401
2000.26362191 1367.570    0.008 7402
2000.26509100 1367.465    0.010 7403
2000.27313300 1367.274    0.031 7405
2000.27474546 1367.429    0.007 7406
2000.27749654 1367.401    0.008 7407
2000.28005396 1367.453    0.020 7408
2000.28266340 1367.385    0.008 7409
2000.28551885 1367.281    0.006 7410
2000.28825463 1367.184    0.009 7411
2000.29098345 1367.092    0.008 7412
2000.29372168 1367.091    0.007 7413
2000.29644272 1367.131    0.010 7414
2000.29918653 1367.212    0.006 7415
2000.30190067 1367.289    0.008 7416
2000.31662961 1365.093    0.020 7421
2000.31831557 1365.259    0.008 7422
2000.32101893 1365.630    0.009 7423
2000.32348686 1365.699    0.010 7424
2000.33026692 1366.667    0.026 7426
2000.33194625 1366.865    0.008 7427
2000.33337094 1367.049    0.026 7428
2000.34292444 1367.187    0.040 7431
2000.35170415 1367.143    0.021 7434
2000.35513240 1367.031    0.023 7435
2000.35653086 1366.887    0.009 7436
2000.35929517 1366.466    0.008 7437
2000.36203053 1366.385    0.010 7438
2000.36475211 1366.481    0.007 7439
2000.36749349 1366.477    0.007 7440
2000.37021054 1366.338    0.006 7441
2000.37295021 1366.014    0.010 7442
2000.37567532 1365.584    0.008 7443
2000.37840526 1365.332    0.007 7444
2000.38114537 1365.168    0.008 7445
2000.38388222 1365.072    0.008 7446
2000.38662027 1365.498    0.010 7447
2000.38934380 1366.064    0.010 7448
2000.39208042 1366.509    0.013 7449
2000.39479913 1366.809    0.007 7450
2000.39753766 1366.875    0.007 7451
2000.40025930 1366.770    0.008 7452
2000.40300238 1366.614    0.008 7453
2000.40574444 1366.526    0.008 7454
2000.40847313 1366.436    0.007 7455
2000.41121095 1366.258    0.010 7456
2000.41392861 1366.153    0.007 7457
2000.41666487 1366.263    0.009 7458
2000.41938661 1366.459    0.008 7459
2000.42212827 1366.545    0.007 7460
2000.42485665 1366.493    0.008 7461
2000.42759605 1366.431    0.008 7462
2000.43032980 1366.444    0.008 7463
2000.43305885 1366.468    0.008 7464
2000.43579830 1366.472    0.008 7465
2000.43851775 1366.476    0.009 7466
2000.44125859 1366.674    0.008 7467
2000.44395465 1366.663    0.008 7468
2000.44651214 1366.588    0.012 7469
2000.44943821 1366.625    0.009 7470
2000.45140213 1366.693    0.017 7471
2000.45468563 1367.103    0.016 7472
2000.45849673 1367.200    0.015 7473
2000.46038607 1366.875    0.011 7474
2000.46310730 1366.620    0.011 7475
2000.46584765 1366.675    0.010 7476
2000.46958397 1366.674    0.017 7477
2000.47130906 1366.773    0.010 7478
2000.47403167 1367.041    0.011 7479
2000.47744755 1366.989    0.012 7480
2000.47848241 1366.947    0.020 7481
2000.48191538 1366.631    0.011 7482
2000.48569064 1366.263    0.015 7483
2000.48764984 1366.125    0.012 7484
2000.49111124 1366.080    0.018 7485
2000.49315794 1366.112    0.009 7486
2000.49589946 1366.383    0.011 7487
2000.49862083 1366.636    0.013 7488
2000.50136790 1366.848    0.010 7489
2000.50410555 1366.898    0.011 7490
2000.50682492 1366.851    0.009 7491
2000.50956869 1366.681    0.011 7492
2000.51228941 1366.465    0.010 7493
2000.51502266 1366.428    0.009 7494
2000.51775592 1366.294    0.011 7495
2000.52049351 1366.361    0.010 7496
2000.52322748 1366.280    0.009 7497
2000.52595248 1366.193    0.010 7498
2000.52761997 1366.175    0.021 7499
2000.53141401 1366.459    0.010 7500
2000.53403929 1366.717    0.015 7501
2000.53687068 1366.849    0.011 7502
2000.53961056 1366.853    0.010 7503
2000.54235051 1366.824    0.011 7504
2000.54508400 1366.674    0.011 7505
2000.54782373 1366.457    0.011 7506
2000.55054397 1366.113    0.011 7507
2000.55328082 1366.007    0.013 7508
2000.55600280 1366.275    0.011 7509
2000.55874585 1366.472    0.011 7510
2000.56146639 1366.644    0.011 7511
2000.56420253 1366.704    0.011 7512
2000.56694260 1366.937    0.011 7513
2000.56967007 1367.096    0.010 7514
2000.57241276 1367.104    0.011 7515
2000.57513303 1367.142    0.009 7516
2000.57787144 1367.284    0.011 7517
2000.58061513 1367.312    0.012 7518
2000.58301745 1367.293    0.012 7519
2000.58715556 1367.179    0.024 7520
2000.58879554 1367.196    0.013 7521
2000.59153649 1367.253    0.011 7522
2000.59426028 1367.179    0.012 7523
2000.59699863 1367.189    0.011 7524
2000.59971707 1366.988    0.011 7525
2000.60245854 1366.926    0.010 7526
2000.60518210 1366.929    0.011 7527
2000.60792255 1367.114    0.011 7528
2000.61066067 1367.323    0.010 7529
2000.61338878 1367.631    0.011 7530
2000.61612686 1367.728    0.010 7531
2000.61884508 1367.533    0.011 7532
2000.62129062 1367.204    0.014 7533
2000.62532666 1367.008    0.023 7534
2000.62704765 1367.122    0.011 7535
2000.62977642 1367.262    0.011 7536
2000.63251515 1367.446    0.011 7537
2000.63525639 1367.495    0.011 7538
2000.63797493 1367.333    0.012 7539
2000.63982442 1367.145    0.019 7540
2000.64343139 1366.834    0.010 7541
2000.64617109 1366.855    0.009 7542
2000.64856587 1366.897    0.013 7543
2000.65817558 1366.699    0.019 7546
2000.65984346 1366.723    0.010 7547
2000.66256336 1366.862    0.011 7548
2000.66530359 1367.011    0.010 7549
2000.66802517 1367.018    0.009 7550
2000.67076305 1366.937    0.009 7551
2000.67349298 1366.931    0.010 7552
2000.67623125 1366.812    0.010 7553
2000.67897016 1366.674    0.008 7554
2000.68169194 1366.975    0.012 7555
2000.68443105 1367.456    0.011 7556
2000.68714961 1367.709    0.012 7557
2000.68987033 1367.794    0.009 7558
2000.69244312 1367.747    0.011 7559
2000.69535286 1367.632    0.010 7560
2000.69809629 1367.423    0.009 7561
2000.70082463 1367.357    0.011 7562
2000.70356009 1367.110    0.011 7563
2000.70627955 1366.934    0.009 7564
2000.70901740 1366.875    0.010 7565
2000.71040542 1366.727    0.054 7566
2000.72102263 1365.137    0.032 7569
2000.72268513 1364.837    0.012 7570
2000.72540793 1364.462    0.010 7571
2000.72815002 1364.583    0.011 7572
2000.73086922 1365.206    0.014 7573
2000.73366810 1366.036    0.020 7574
2000.73633090 1366.561    0.011 7575
2000.73906593 1367.084    0.011 7576
2000.74180370 1367.443    0.009 7577
2000.74453984 1367.287    0.009 7578
2000.74727759 1366.959    0.008 7579
2000.74999458 1366.550    0.010 7580
2000.75273168 1366.568    0.008 7581
2000.75545272 1366.894    0.010 7582
2000.75819798 1367.209    0.009 7583
2000.76092665 1367.498    0.008 7584
2000.76366386 1367.553    0.008 7585
2000.76640092 1367.501    0.008 7586
2000.76912295 1367.385    0.007 7587
2000.77186985 1367.335    0.008 7588
2000.77458796 1367.155    0.008 7589
2000.77737679 1367.065    0.008 7590
2000.78003929 1367.200    0.009 7591
2000.78278687 1367.324    0.008 7592
2000.78552472 1367.299    0.007 7593
2000.78824715 1367.362    0.009 7594
2000.79098236 1367.535    0.008 7595
2000.79371244 1367.604    0.008 7596
2000.79644819 1367.547    0.007 7597
2000.79916826 1367.443    0.007 7598
2000.80191622 1367.250    0.009 7599
2000.80464915 1367.192    0.007 7600
2000.80737867 1367.313    0.007 7601
2000.81011469 1367.481    0.007 7602
2000.81283599 1367.689    0.008 7603
2000.81557644 1367.810    0.007 7604
2000.81829648 1367.823    0.008 7605
2000.82103887 1367.659    0.007 7606
2000.82376336 1367.581    0.007 7607
2000.82643256 1367.641    0.009 7608
2000.82923937 1367.585    0.008 7609
2000.83196425 1367.562    0.006 7610
2000.83470558 1367.379    0.009 7611
2000.83742842 1367.094    0.008 7612
2000.84016380 1366.973    0.007 7613
2000.84288670 1367.005    0.008 7614
2000.84562566 1367.154    0.007 7615
2000.84832022 1367.413    0.010 7616
2000.85109565 1367.548    0.007 7617
2000.85383254 1367.461    0.007 7618
2000.85655373 1367.219    0.009 7619
2000.85929413 1367.000    0.006 7620
2000.86201139 1366.964    0.006 7621
2000.86475391 1367.013    0.007 7622
2000.86748410 1367.030    0.006 7623
2000.87022331 1367.112    0.007 7624
2000.87295822 1367.248    0.008 7625
2000.87537910 1367.276    0.008 7626
2000.88219403 1366.824    0.014 7628
2000.88388294 1366.856    0.006 7629
2000.88660140 1366.903    0.006 7630
2000.88934015 1367.029    0.006 7631
2000.89207765 1367.133    0.006 7632
2000.89480821 1367.314    0.006 7633
2000.89754864 1367.335    0.006 7634
2000.90027059 1367.409    0.006 7635
2000.90226595 1367.396    0.017 7636
2000.90676257 1367.497    0.024 7637
2000.90846288 1367.328    0.006 7638
2000.91119154 1367.259    0.008 7639
2000.91393231 1367.279    0.005 7640
2000.91667562 1367.402    0.006 7641
2000.91939488 1367.527    0.006 7642
2000.92213399 1367.709    0.006 7643
2000.92484755 1367.785    0.006 7644
2000.92759509 1367.494    0.007 7645
2000.93032729 1367.168    0.006 7646
2000.93306269 1367.045    0.005 7647
2000.93580127 1367.084    0.007 7648
2000.93852210 1367.120    0.005 7649
2000.94126982 1367.254    0.006 7650
2000.94394955 1367.342    0.005 7651
2000.94672044 1367.358    0.006 7652
2000.94943772 1367.214    0.005 7653
2000.95218312 1367.084    0.008 7654
2000.95491594 1367.040    0.006 7655
2000.95765114 1367.205    0.008 7656
2000.96039015 1367.411    0.007 7657
2000.96310597 1367.692    0.006 7658
2000.96585213 1367.748    0.006 7659
2000.96825487 1367.719    0.006 7660
2000.97232967 1367.470    0.011 7661
2000.97404266 1367.364    0.006 7662
2000.97678436 1367.231    0.006 7663
2000.97951387 1367.176    0.006 7664
2000.98222441 1367.161    0.006 7665
2000.98497737 1367.174    0.006 7666
2000.98769147 1367.219    0.006 7667
2000.99043481 1367.170    0.007 7668
2000.99316098 1367.076    0.007 7669
2000.99590652 1366.924    0.006 7670
2000.99861969 1366.687    0.008 7671
2001.00140943 1366.546    0.007 7672
2001.00416257 1366.668    0.007 7673
2001.00684297 1366.829    0.007 7674
2001.00959060 1366.936    0.007 7675
2001.01231155 1367.127    0.008 7676
2001.01506477 1367.358    0.008 7677
2001.01780958 1367.464    0.007 7678
2001.02054300 1367.447    0.007 7679
2001.02329126 1367.367    0.008 7680
2001.02602138 1367.217    0.008 7681
2001.02877072 1367.067    0.008 7682
2001.03149464 1366.873    0.008 7683
2001.03424490 1366.756    0.008 7684
2001.03698353 1366.875    0.008 7685
2001.03973171 1367.107    0.009 7686
2001.04247169 1367.371    0.008 7687
2001.04520513 1367.521    0.009 7688
2001.04839589 1367.597    0.017 7689
2001.05056418 1367.477    0.010 7690
2001.05342504 1367.398    0.009 7691
2001.05615429 1367.322    0.009 7692
2001.05890274 1367.330    0.009 7693
2001.06165081 1367.430    0.009 7694
2001.06438482 1367.272    0.011 7695
2001.06712693 1367.228    0.010 7696
2001.06986053 1367.304    0.012 7697
2001.07260524 1367.274    0.009 7698
2001.07533600 1367.274    0.010 7699
2001.07807619 1367.385    0.010 7700
2001.08082390 1367.434    0.009 7701
2001.08348917 1367.547    0.010 7702
2001.08630460 1367.618    0.010 7703
2001.08908876 1367.564    0.010 7704
2001.09178074 1367.559    0.009 7705
2001.09450892 1367.656    0.012 7706
2001.09725746 1367.586    0.010 7707
2001.10000256 1367.312    0.010 7708
2001.10273491 1367.204    0.010 7709
2001.10549308 1367.185    0.011 7710
2001.10821593 1367.253    0.010 7711
2001.11096337 1367.169    0.010 7712
2001.11368874 1367.222    0.010 7713
2001.11643823 1367.321    0.010 7714
2001.11917192 1367.260    0.009 7715
2001.12191725 1367.265    0.011 7716
2001.12465533 1367.261    0.009 7717
2001.12739275 1367.229    0.009 7718
2001.13014524 1367.197    0.010 7719
2001.13287342 1367.197    0.010 7720
2001.13561711 1367.138    0.010 7721
2001.13833720 1367.132    0.009 7722
2001.14099893 1367.283    0.015 7723
2001.14383814 1367.394    0.010 7724
2001.14657610 1367.346    0.010 7725
2001.14932611 1367.329    0.008 7726
2001.15248187 1367.308    0.011 7727
2001.15479478 1367.203    0.011 7728
2001.15752326 1367.248    0.008 7729
2001.16027459 1367.263    0.009 7730
2001.16301365 1367.373    0.009 7731
2001.16576040 1367.462    0.009 7732
2001.16850268 1367.450    0.008 7733
2001.17122892 1367.225    0.009 7734
2001.17397723 1367.033    0.009 7735
2001.17670656 1366.788    0.008 7736
2001.17945251 1366.751    0.008 7737
2001.18218468 1366.834    0.009 7738
2001.18493312 1367.068    0.009 7739
2001.18767252 1367.221    0.010 7740
2001.19040876 1367.384    0.007 7741
2001.19302504 1367.418    0.011 7742
2001.19588491 1367.274    0.008 7743
2001.19863082 1367.043    0.008 7744
2001.20079388 1366.939    0.014 7745
2001.20330186 1366.960    0.014 7746
2001.20685817 1367.129    0.008 7747
2001.20960756 1367.111    0.007 7748
2001.21232798 1367.202    0.007 7749
2001.21506783 1367.307    0.008 7750
2001.21780726 1367.281    0.008 7751
2001.22053667 1367.065    0.007 7752
2001.22328947 1366.879    0.008 7753
2001.22602389 1366.743    0.008 7754
2001.22877111 1366.425    0.009 7755
2001.23151841 1365.867    0.013 7756
2001.23423593 1364.874    0.014 7757
2001.23699117 1364.494    0.007 7758
2001.23971882 1364.706    0.009 7759
2001.24246869 1365.065    0.010 7760
2001.24519738 1365.589    0.010 7761
2001.24794380 1366.002    0.009 7762
2001.25068863 1366.467    0.009 7763
2001.25340822 1366.857    0.010 7764
2001.25603568 1367.090    0.013 7765
2001.25889571 1366.956    0.008 7766
2001.26164558 1366.564    0.008 7767
2001.26437149 1366.360    0.006 7768
2001.26712179 1366.195    0.007 7769
2001.26987189 1366.072    0.007 7770
2001.27260745 1366.125    0.010 7771
2001.27535150 1366.207    0.007 7772
2001.27807584 1366.407    0.007 7773
2001.28082155 1366.674    0.007 7774
2001.28354920 1366.821    0.006 7775
2001.28630000 1366.899    0.006 7776
2001.28904088 1366.813    0.006 7777
2001.29178244 1366.736    0.006 7778
2001.29453007 1366.693    0.006 7779
2001.29725585 1366.682    0.007 7780
2001.30000477 1366.596    0.007 7781
2001.30273411 1366.245    0.012 7782
2001.30547499 1366.090    0.008 7783
2001.30821397 1366.083    0.006 7784
2001.31095891 1366.047    0.005 7785
2001.31371103 1366.130    0.005 7786
2001.31643520 1366.343    0.006 7787
2001.31917704 1366.482    0.006 7788
2001.32191047 1366.681    0.006 7789
2001.32373394 1366.778    0.010 7790
2001.32850396 1366.398    0.021 7791
2001.33013551 1366.747    0.006 7792
2001.33267823 1366.852    0.006 7793
2001.33527140 1366.835    0.026 7794
2001.33836409 1366.708    0.007 7795
2001.34109093 1366.922    0.008 7796
2001.34383585 1366.990    0.009 7797
2001.34656067 1366.905    0.012 7798
2001.34931246 1366.874    0.005 7799
2001.35206019 1366.813    0.005 7800
2001.35479663 1366.718    0.007 7801
2001.35753883 1366.438    0.007 7802
2001.36026680 1366.100    0.008 7803
2001.36301436 1366.000    0.008 7804
2001.36573853 1366.102    0.008 7805
2001.36849092 1366.341    0.008 7806
2001.37123727 1366.602    0.008 7807
2001.37397168 1366.836    0.007 7808
2001.37672106 1366.968    0.007 7809
2001.37944683 1366.941    0.007 7810
2001.38219760 1366.886    0.007 7811
2001.38492210 1366.728    0.009 7812
2001.38766592 1366.463    0.013 7813
2001.39041081 1366.167    0.008 7814
2001.39315643 1366.083    0.008 7815
2001.39562443 1366.223    0.009 7816
2001.39932624 1366.554    0.014 7817
2001.40137342 1366.806    0.010 7818
2001.40409945 1367.078    0.009 7819
2001.40685180 1367.199    0.009 7820
2001.40957673 1367.140    0.010 7821
2001.41232793 1367.005    0.011 7822
2001.41507959 1366.943    0.009 7823
2001.41785831 1366.877    0.011 7824
2001.42055253 1366.732    0.010 7825
2001.42327323 1366.467    0.010 7826
2001.42602600 1366.451    0.009 7827
2001.42875757 1366.498    0.012 7828
2001.43156304 1366.456    0.010 7829
2001.43425921 1366.051    0.014 7830
2001.43698381 1365.545    0.010 7831
2001.43973160 1365.603    0.009 7832
2001.44234120 1365.905    0.018 7833
2001.44520895 1366.377    0.011 7834
2001.44793814 1366.587    0.011 7835
2001.45068636 1366.592    0.009 7836
2001.45343153 1366.588    0.009 7837
2001.45616249 1366.254    0.012 7838
2001.45891264 1365.981    0.010 7839
2001.46163666 1365.757    0.010 7840
2001.46438579 1365.653    0.009 7841
2001.46711615 1365.617    0.012 7842
2001.46986141 1365.883    0.012 7843
2001.47261125 1366.366    0.011 7844
2001.47534381 1366.678    0.009 7845
2001.47809432 1366.859    0.011 7846
2001.48081561 1366.894    0.010 7847
2001.48356182 1366.746    0.009 7848
2001.48629285 1366.739    0.011 7849
2001.48903721 1366.809    0.009 7850
2001.49178904 1366.867    0.008 7851
2001.49452566 1366.959    0.010 7852
2001.49726825 1367.069    0.007 7853
2001.49999221 1367.206    0.006 7854
2001.50274630 1367.170    0.006 7855
2001.50546701 1366.978    0.010 7856
2001.50821623 1366.786    0.005 7857
2001.51096239 1366.665    0.008 7858
2001.51372690 1366.544    0.006 7859
2001.51635835 1366.458    0.005 7860
2001.51922738 1366.475    0.009 7861
2001.52191982 1366.646    0.006 7862
2001.52465067 1366.826    0.007 7863
2001.52739385 1366.872    0.006 7864
2001.53013954 1366.794    0.006 7865
2001.53287388 1366.535    0.009 7866
2001.53562594 1366.299    0.007 7867
2001.53835098 1366.161    0.007 7868
2001.54109836 1366.199    0.006 7869
2001.54382537 1366.404    0.008 7870
2001.54657320 1366.558    0.007 7871
2001.54932129 1366.550    0.007 7872
2001.55111476 1366.467    0.012 7873
2001.55600830 1366.385    0.020 7874
2001.55752532 1366.405    0.007 7875
2001.56027504 1366.440    0.005 7876
2001.56300157 1366.489    0.008 7877
2001.56574774 1366.523    0.006 7878
2001.56849118 1366.606    0.007 7879
2001.57123529 1366.654    0.006 7880
2001.57367994 1366.727    0.009 7881
2001.57670325 1366.753    0.008 7882
2001.57945571 1366.730    0.007 7883
2001.58218052 1366.656    0.008 7884
2001.58493203 1366.540    0.006 7885
2001.58766152 1366.384    0.009 7886
2001.59041531 1365.960    0.009 7887
2001.59255866 1365.730    0.015 7888
2001.59632445 1365.915    0.010 7889
2001.59910789 1366.038    0.028 7890
2001.60136109 1366.260    0.009 7891
2001.60410638 1366.475    0.006 7892
2001.60684847 1366.515    0.010 7893
2001.60864699 1366.238    0.010 7894
2001.61298652 1366.187    0.009 7895
2001.61505962 1366.326    0.009 7896
2001.61780677 1366.568    0.006 7897
2001.62053171 1366.759    0.007 7898
2001.62328848 1366.929    0.007 7899
2001.62602440 1367.035    0.007 7900
2001.62876631 1366.754    0.011 7901
2001.63152014 1366.446    0.007 7902
2001.63391467 1366.246    0.010 7903
2001.63665441 1365.796    0.014 7903
2001.64057066 1366.081    0.023 7905
2001.64245981 1366.516    0.008 7906
2001.64520525 1366.643    0.007 7907
2001.64795375 1366.580    0.006 7908
2001.65069601 1366.421    0.007 7909
2001.65341979 1366.350    0.006 7910
2001.65609739 1366.355    0.008 7911
2001.65889717 1366.297    0.008 7912
2001.66164341 1366.119    0.006 7913
2001.66437439 1366.081    0.006 7914
2001.66712139 1366.096    0.005 7915
2001.66987215 1366.036    0.007 7916
2001.67259518 1366.043    0.007 7917
2001.67534627 1366.098    0.006 7918
2001.67808170 1366.176    0.006 7919
2001.68081931 1366.414    0.007 7920
2001.68355492 1366.486    0.006 7921
2001.68630356 1366.242    0.008 7922
2001.68905344 1365.857    0.009 7923
2001.69177976 1365.521    0.008 7924
2001.69451995 1365.604    0.007 7925
2001.69725372 1365.867    0.008 7926
2001.69999701 1366.222    0.007 7927
2001.70273348 1366.509    0.010 7928
2001.70548399 1366.812    0.007 7929
2001.70822420 1366.927    0.007 7930
2001.71094670 1366.901    0.007 7931
2001.71370464 1366.696    0.007 7932
2001.71642600 1366.554    0.007 7933
2001.71917460 1366.398    0.008 7934
2001.72191637 1366.218    0.008 7935
